
 ------------------------------------------------------------
     resonance       Raman Scattering Plot
 ------------------------------------------------------------
 Excitation wavelength  514.50 nm
 Convolution lineshape is lorentzian  
 FWHM   20.00  1/cm
 ------------------------------------------------------------
 ------------------------------------------------------------
 # of frequencies :     3
 ------------------------------------------------------------
#  freq [ 1/cm]  S-tot [a.u.]S-real [a.u.]  S-imag [a.u.]
 ------------------------------------------------------------
   1  1584.29        1.6779        1.6775        0.0004
   2  3674.59      114.9261      114.8841        0.0420
   3  3786.71       28.9080       28.8973        0.0106
 ------------------------------------------------------------
  1526.61    0.5932E-04    0.5930E-04    0.1346E-07
  1528.94    0.6417E-04    0.6415E-04    0.1455E-07
  1531.26    0.6964E-04    0.6962E-04    0.1578E-07
  1533.59    0.7585E-04    0.7583E-04    0.1718E-07
  1535.91    0.8292E-04    0.8290E-04    0.1877E-07
  1538.24    0.9102E-04    0.9100E-04    0.2059E-07
  1540.56    0.1004E-03    0.1003E-03    0.2269E-07
  1542.89    0.1112E-03    0.1112E-03    0.2512E-07
  1545.21    0.1239E-03    0.1239E-03    0.2797E-07
  1547.54    0.1388E-03    0.1388E-03    0.3133E-07
  1549.86    0.1566E-03    0.1565E-03    0.3532E-07
  1552.19    0.1779E-03    0.1778E-03    0.4010E-07
  1554.51    0.2037E-03    0.2036E-03    0.4590E-07
  1556.83    0.2353E-03    0.2352E-03    0.5300E-07
  1559.16    0.2744E-03    0.2744E-03    0.6180E-07
  1561.48    0.3236E-03    0.3235E-03    0.7284E-07
  1563.81    0.3861E-03    0.3860E-03    0.8688E-07
  1566.13    0.4666E-03    0.4665E-03    0.1050E-06
  1568.46    0.5715E-03    0.5714E-03    0.1285E-06
  1570.78    0.7093E-03    0.7091E-03    0.1595E-06
  1573.11    0.8899E-03    0.8897E-03    0.2001E-06
  1575.43    0.1122E-02    0.1122E-02    0.2522E-06
  1577.76    0.1403E-02    0.1403E-02    0.3154E-06
  1580.08    0.1700E-02    0.1700E-02    0.3822E-06
  1582.41    0.1933E-02    0.1932E-02    0.4344E-06
  1584.73    0.1997E-02    0.1997E-02    0.4489E-06
  1587.06    0.1859E-02    0.1858E-02    0.4178E-06
  1589.38    0.1589E-02    0.1589E-02    0.3572E-06
  1591.71    0.1291E-02    0.1291E-02    0.2903E-06
  1594.03    0.1027E-02    0.1027E-02    0.2309E-06
  1596.36    0.8153E-03    0.8152E-03    0.1833E-06
  1598.68    0.6522E-03    0.6521E-03    0.1467E-06
  1601.01    0.5281E-03    0.5280E-03    0.1188E-06
  1603.33    0.4334E-03    0.4333E-03    0.9753E-07
  1605.65    0.3604E-03    0.3603E-03    0.8113E-07
  1607.98    0.3035E-03    0.3034E-03    0.6834E-07
  1610.30    0.2585E-03    0.2584E-03    0.5823E-07
  1612.63    0.2225E-03    0.2224E-03    0.5013E-07
  1614.95    0.1933E-03    0.1932E-03    0.4357E-07
  1617.28    0.1693E-03    0.1693E-03    0.3820E-07
  1619.60    0.1495E-03    0.1495E-03    0.3374E-07
  1621.93    0.1329E-03    0.1329E-03    0.3001E-07
  1624.25    0.1189E-03    0.1189E-03    0.2686E-07
  1626.58    0.1070E-03    0.1069E-03    0.2418E-07
  1628.90    0.9672E-04    0.9670E-04    0.2188E-07
  1631.23    0.8788E-04    0.8786E-04    0.1989E-07
  1633.55    0.8020E-04    0.8018E-04    0.1817E-07
  1635.88    0.7348E-04    0.7346E-04    0.1666E-07
  1638.20    0.6757E-04    0.6756E-04    0.1533E-07
  1640.53    0.6236E-04    0.6234E-04    0.1416E-07
  1642.85    0.5772E-04    0.5771E-04    0.1312E-07
  1645.18    0.5359E-04    0.5358E-04    0.1219E-07
  1647.50    0.4989E-04    0.4988E-04    0.1136E-07
  1649.82    0.4657E-04    0.4656E-04    0.1061E-07
  1652.15    0.4357E-04    0.4356E-04    0.9941E-08
  1654.47    0.4086E-04    0.4085E-04    0.9332E-08
  1656.80    0.3840E-04    0.3839E-04    0.8779E-08
  1659.12    0.3616E-04    0.3615E-04    0.8276E-08
  1661.45    0.3411E-04    0.3411E-04    0.7817E-08
  1663.77    0.3224E-04    0.3223E-04    0.7396E-08
  1666.10    0.3052E-04    0.3052E-04    0.7011E-08
  1668.42    0.2894E-04    0.2894E-04    0.6656E-08
  1670.75    0.2749E-04    0.2748E-04    0.6329E-08
  1673.07    0.2614E-04    0.2614E-04    0.6028E-08
  1675.40    0.2490E-04    0.2489E-04    0.5748E-08
  1677.72    0.2374E-04    0.2374E-04    0.5489E-08
  1680.05    0.2267E-04    0.2267E-04    0.5249E-08
  1682.37    0.2167E-04    0.2167E-04    0.5025E-08
  1684.70    0.2074E-04    0.2074E-04    0.4816E-08
  1687.02    0.1987E-04    0.1987E-04    0.4621E-08
  1689.35    0.1906E-04    0.1906E-04    0.4439E-08
  1691.67    0.1830E-04    0.1830E-04    0.4269E-08
  1694.00    0.1759E-04    0.1759E-04    0.4109E-08
  1696.32    0.1692E-04    0.1692E-04    0.3959E-08
  1698.64    0.1629E-04    0.1629E-04    0.3818E-08
  1700.97    0.1570E-04    0.1570E-04    0.3686E-08
  1703.29    0.1514E-04    0.1514E-04    0.3561E-08
  1705.62    0.1462E-04    0.1461E-04    0.3443E-08
  1707.94    0.1412E-04    0.1412E-04    0.3332E-08
  1710.27    0.1365E-04    0.1365E-04    0.3227E-08
  1712.59    0.1321E-04    0.1320E-04    0.3127E-08
  1714.92    0.1279E-04    0.1278E-04    0.3033E-08
  1717.24    0.1239E-04    0.1238E-04    0.2944E-08
  1719.57    0.1201E-04    0.1200E-04    0.2859E-08
  1721.89    0.1165E-04    0.1165E-04    0.2779E-08
  1724.22    0.1131E-04    0.1130E-04    0.2702E-08
  1726.54    0.1098E-04    0.1098E-04    0.2629E-08
  1728.87    0.1067E-04    0.1067E-04    0.2560E-08
  1731.19    0.1038E-04    0.1037E-04    0.2494E-08
  1733.52    0.1010E-04    0.1009E-04    0.2432E-08
  1735.84    0.9827E-05    0.9825E-05    0.2372E-08
  1738.17    0.9571E-05    0.9569E-05    0.2315E-08
  1740.49    0.9326E-05    0.9324E-05    0.2260E-08
  1742.81    0.9092E-05    0.9090E-05    0.2208E-08
  1745.14    0.8869E-05    0.8866E-05    0.2158E-08
  1747.46    0.8654E-05    0.8652E-05    0.2110E-08
  1749.79    0.8449E-05    0.8447E-05    0.2064E-08
  1752.11    0.8252E-05    0.8250E-05    0.2021E-08
  1754.44    0.8064E-05    0.8062E-05    0.1979E-08
  1756.76    0.7883E-05    0.7881E-05    0.1938E-08
  1759.09    0.7709E-05    0.7707E-05    0.1900E-08
  1761.41    0.7543E-05    0.7541E-05    0.1863E-08
  1763.74    0.7382E-05    0.7381E-05    0.1827E-08
  1766.06    0.7228E-05    0.7227E-05    0.1793E-08
  1768.39    0.7080E-05    0.7079E-05    0.1760E-08
  1770.71    0.6938E-05    0.6936E-05    0.1728E-08
  1773.04    0.6801E-05    0.6799E-05    0.1698E-08
  1775.36    0.6668E-05    0.6667E-05    0.1669E-08
  1777.69    0.6541E-05    0.6540E-05    0.1641E-08
  1780.01    0.6418E-05    0.6417E-05    0.1613E-08
  1782.34    0.6300E-05    0.6299E-05    0.1587E-08
  1784.66    0.6186E-05    0.6185E-05    0.1562E-08
  1786.99    0.6076E-05    0.6074E-05    0.1538E-08
  1789.31    0.5970E-05    0.5968E-05    0.1514E-08
  1791.63    0.5867E-05    0.5866E-05    0.1492E-08
  1793.96    0.5768E-05    0.5767E-05    0.1470E-08
  1796.28    0.5672E-05    0.5671E-05    0.1449E-08
  1798.61    0.5580E-05    0.5578E-05    0.1428E-08
  1800.93    0.5490E-05    0.5489E-05    0.1409E-08
  1803.26    0.5404E-05    0.5402E-05    0.1390E-08
  1805.58    0.5320E-05    0.5318E-05    0.1371E-08
  1807.91    0.5239E-05    0.5237E-05    0.1353E-08
  1810.23    0.5160E-05    0.5159E-05    0.1336E-08
  1812.56    0.5084E-05    0.5083E-05    0.1320E-08
  1814.88    0.5011E-05    0.5009E-05    0.1303E-08
  1817.21    0.4939E-05    0.4938E-05    0.1288E-08
  1819.53    0.4870E-05    0.4869E-05    0.1273E-08
  1821.86    0.4803E-05    0.4802E-05    0.1258E-08
  1824.18    0.4738E-05    0.4737E-05    0.1244E-08
  1826.51    0.4675E-05    0.4674E-05    0.1230E-08
  1828.83    0.4614E-05    0.4613E-05    0.1217E-08
  1831.16    0.4555E-05    0.4554E-05    0.1204E-08
  1833.48    0.4497E-05    0.4496E-05    0.1192E-08
  1835.80    0.4441E-05    0.4440E-05    0.1180E-08
  1838.13    0.4387E-05    0.4386E-05    0.1168E-08
  1840.45    0.4334E-05    0.4333E-05    0.1156E-08
  1842.78    0.4283E-05    0.4282E-05    0.1145E-08
  1845.10    0.4234E-05    0.4232E-05    0.1135E-08
  1847.43    0.4185E-05    0.4184E-05    0.1124E-08
  1849.75    0.4138E-05    0.4137E-05    0.1114E-08
  1852.08    0.4093E-05    0.4092E-05    0.1104E-08
  1854.40    0.4048E-05    0.4047E-05    0.1095E-08
  1856.73    0.4005E-05    0.4004E-05    0.1086E-08
  1859.05    0.3963E-05    0.3962E-05    0.1077E-08
  1861.38    0.3922E-05    0.3921E-05    0.1068E-08
  1863.70    0.3883E-05    0.3882E-05    0.1060E-08
  1866.03    0.3844E-05    0.3843E-05    0.1051E-08
  1868.35    0.3806E-05    0.3805E-05    0.1043E-08
  1870.68    0.3770E-05    0.3769E-05    0.1036E-08
  1873.00    0.3734E-05    0.3733E-05    0.1028E-08
  1875.33    0.3700E-05    0.3699E-05    0.1021E-08
  1877.65    0.3666E-05    0.3665E-05    0.1014E-08
  1879.97    0.3633E-05    0.3632E-05    0.1007E-08
  1882.30    0.3601E-05    0.3600E-05    0.1000E-08
  1884.62    0.3570E-05    0.3569E-05    0.9937E-09
  1886.95    0.3539E-05    0.3538E-05    0.9874E-09
  1889.27    0.3510E-05    0.3509E-05    0.9812E-09
  1891.60    0.3481E-05    0.3480E-05    0.9753E-09
  1893.92    0.3453E-05    0.3452E-05    0.9694E-09
  1896.25    0.3426E-05    0.3425E-05    0.9638E-09
  1898.57    0.3399E-05    0.3398E-05    0.9583E-09
  1900.90    0.3373E-05    0.3372E-05    0.9530E-09
  1903.22    0.3348E-05    0.3347E-05    0.9478E-09
  1905.55    0.3323E-05    0.3322E-05    0.9427E-09
  1907.87    0.3299E-05    0.3298E-05    0.9378E-09
  1910.20    0.3275E-05    0.3274E-05    0.9331E-09
  1912.52    0.3252E-05    0.3252E-05    0.9285E-09
  1914.85    0.3230E-05    0.3229E-05    0.9240E-09
  1917.17    0.3208E-05    0.3207E-05    0.9196E-09
  1919.50    0.3187E-05    0.3186E-05    0.9153E-09
  1921.82    0.3166E-05    0.3166E-05    0.9112E-09
  1924.15    0.3146E-05    0.3145E-05    0.9072E-09
  1926.47    0.3127E-05    0.3126E-05    0.9033E-09
  1928.79    0.3107E-05    0.3107E-05    0.8995E-09
  1931.12    0.3089E-05    0.3088E-05    0.8958E-09
  1933.44    0.3070E-05    0.3070E-05    0.8923E-09
  1935.77    0.3053E-05    0.3052E-05    0.8888E-09
  1938.09    0.3035E-05    0.3034E-05    0.8855E-09
  1940.42    0.3018E-05    0.3017E-05    0.8822E-09
  1942.74    0.3002E-05    0.3001E-05    0.8790E-09
  1945.07    0.2986E-05    0.2985E-05    0.8759E-09
  1947.39    0.2970E-05    0.2969E-05    0.8730E-09
  1949.72    0.2955E-05    0.2954E-05    0.8701E-09
  1952.04    0.2940E-05    0.2939E-05    0.8672E-09
  1954.37    0.2925E-05    0.2924E-05    0.8645E-09
  1956.69    0.2911E-05    0.2910E-05    0.8619E-09
  1959.02    0.2897E-05    0.2896E-05    0.8593E-09
  1961.34    0.2883E-05    0.2883E-05    0.8568E-09
  1963.67    0.2870E-05    0.2869E-05    0.8544E-09
  1965.99    0.2857E-05    0.2857E-05    0.8521E-09
  1968.32    0.2845E-05    0.2844E-05    0.8499E-09
  1970.64    0.2833E-05    0.2832E-05    0.8477E-09
  1972.96    0.2821E-05    0.2820E-05    0.8456E-09
  1975.29    0.2809E-05    0.2808E-05    0.8435E-09
  1977.61    0.2798E-05    0.2797E-05    0.8416E-09
  1979.94    0.2787E-05    0.2786E-05    0.8397E-09
  1982.26    0.2776E-05    0.2775E-05    0.8378E-09
  1984.59    0.2766E-05    0.2765E-05    0.8361E-09
  1986.91    0.2755E-05    0.2754E-05    0.8344E-09
  1989.24    0.2745E-05    0.2745E-05    0.8327E-09
  1991.56    0.2736E-05    0.2735E-05    0.8311E-09
  1993.89    0.2726E-05    0.2725E-05    0.8296E-09
  1996.21    0.2717E-05    0.2716E-05    0.8281E-09
  1998.54    0.2708E-05    0.2707E-05    0.8267E-09
  2000.86    0.2699E-05    0.2699E-05    0.8253E-09
  2003.19    0.2691E-05    0.2690E-05    0.8240E-09
  2005.51    0.2683E-05    0.2682E-05    0.8228E-09
  2007.84    0.2675E-05    0.2674E-05    0.8216E-09
  2010.16    0.2667E-05    0.2666E-05    0.8205E-09
  2012.49    0.2659E-05    0.2658E-05    0.8194E-09
  2014.81    0.2652E-05    0.2651E-05    0.8183E-09
  2017.14    0.2645E-05    0.2644E-05    0.8173E-09
  2019.46    0.2638E-05    0.2637E-05    0.8164E-09
  2021.78    0.2631E-05    0.2630E-05    0.8155E-09
  2024.11    0.2624E-05    0.2623E-05    0.8146E-09
  2026.43    0.2618E-05    0.2617E-05    0.8138E-09
  2028.76    0.2612E-05    0.2611E-05    0.8130E-09
  2031.08    0.2606E-05    0.2605E-05    0.8123E-09
  2033.41    0.2600E-05    0.2599E-05    0.8116E-09
  2035.73    0.2594E-05    0.2593E-05    0.8110E-09
  2038.06    0.2589E-05    0.2588E-05    0.8104E-09
  2040.38    0.2583E-05    0.2583E-05    0.8099E-09
  2042.71    0.2578E-05    0.2577E-05    0.8094E-09
  2045.03    0.2573E-05    0.2572E-05    0.8089E-09
  2047.36    0.2568E-05    0.2568E-05    0.8085E-09
  2049.68    0.2564E-05    0.2563E-05    0.8081E-09
  2052.01    0.2559E-05    0.2558E-05    0.8077E-09
  2054.33    0.2555E-05    0.2554E-05    0.8074E-09
  2056.66    0.2551E-05    0.2550E-05    0.8071E-09
  2058.98    0.2547E-05    0.2546E-05    0.8069E-09
  2061.31    0.2543E-05    0.2542E-05    0.8067E-09
  2063.63    0.2539E-05    0.2538E-05    0.8065E-09
  2065.95    0.2535E-05    0.2535E-05    0.8064E-09
  2068.28    0.2532E-05    0.2531E-05    0.8063E-09
  2070.60    0.2529E-05    0.2528E-05    0.8062E-09
  2072.93    0.2525E-05    0.2525E-05    0.8062E-09
  2075.25    0.2522E-05    0.2522E-05    0.8062E-09
  2077.58    0.2520E-05    0.2519E-05    0.8062E-09
  2079.90    0.2517E-05    0.2516E-05    0.8063E-09
  2082.23    0.2514E-05    0.2513E-05    0.8064E-09
  2084.55    0.2512E-05    0.2511E-05    0.8065E-09
  2086.88    0.2509E-05    0.2508E-05    0.8067E-09
  2089.20    0.2507E-05    0.2506E-05    0.8069E-09
  2091.53    0.2505E-05    0.2504E-05    0.8071E-09
  2093.85    0.2503E-05    0.2502E-05    0.8073E-09
  2096.18    0.2501E-05    0.2500E-05    0.8076E-09
  2098.50    0.2499E-05    0.2498E-05    0.8079E-09
  2100.83    0.2497E-05    0.2496E-05    0.8083E-09
  2103.15    0.2496E-05    0.2495E-05    0.8086E-09
  2105.48    0.2494E-05    0.2493E-05    0.8090E-09
  2107.80    0.2493E-05    0.2492E-05    0.8095E-09
  2110.13    0.2492E-05    0.2491E-05    0.8099E-09
  2112.45    0.2490E-05    0.2490E-05    0.8104E-09
  2114.77    0.2489E-05    0.2489E-05    0.8109E-09
  2117.10    0.2488E-05    0.2488E-05    0.8114E-09
  2119.42    0.2488E-05    0.2487E-05    0.8120E-09
  2121.75    0.2487E-05    0.2486E-05    0.8126E-09
  2124.07    0.2486E-05    0.2485E-05    0.8132E-09
  2126.40    0.2486E-05    0.2485E-05    0.8138E-09
  2128.72    0.2485E-05    0.2484E-05    0.8145E-09
  2131.05    0.2485E-05    0.2484E-05    0.8152E-09
  2133.37    0.2485E-05    0.2484E-05    0.8159E-09
  2135.70    0.2485E-05    0.2484E-05    0.8166E-09
  2138.02    0.2485E-05    0.2484E-05    0.8174E-09
  2140.35    0.2485E-05    0.2484E-05    0.8182E-09
  2142.67    0.2485E-05    0.2484E-05    0.8190E-09
  2145.00    0.2485E-05    0.2484E-05    0.8198E-09
  2147.32    0.2485E-05    0.2485E-05    0.8207E-09
  2149.65    0.2486E-05    0.2485E-05    0.8216E-09
  2151.97    0.2486E-05    0.2485E-05    0.8225E-09
  2154.30    0.2487E-05    0.2486E-05    0.8234E-09
  2156.62    0.2488E-05    0.2487E-05    0.8244E-09
  2158.94    0.2488E-05    0.2487E-05    0.8253E-09
  2161.27    0.2489E-05    0.2488E-05    0.8264E-09
  2163.59    0.2490E-05    0.2489E-05    0.8274E-09
  2165.92    0.2491E-05    0.2490E-05    0.8284E-09
  2168.24    0.2492E-05    0.2491E-05    0.8295E-09
  2170.57    0.2493E-05    0.2493E-05    0.8306E-09
  2172.89    0.2495E-05    0.2494E-05    0.8317E-09
  2175.22    0.2496E-05    0.2495E-05    0.8328E-09
  2177.54    0.2497E-05    0.2497E-05    0.8340E-09
  2179.87    0.2499E-05    0.2498E-05    0.8352E-09
  2182.19    0.2501E-05    0.2500E-05    0.8364E-09
  2184.52    0.2502E-05    0.2501E-05    0.8376E-09
  2186.84    0.2504E-05    0.2503E-05    0.8388E-09
  2189.17    0.2506E-05    0.2505E-05    0.8401E-09
  2191.49    0.2508E-05    0.2507E-05    0.8414E-09
  2193.82    0.2510E-05    0.2509E-05    0.8427E-09
  2196.14    0.2512E-05    0.2511E-05    0.8440E-09
  2198.47    0.2514E-05    0.2513E-05    0.8454E-09
  2200.79    0.2516E-05    0.2515E-05    0.8467E-09
  2203.11    0.2518E-05    0.2517E-05    0.8481E-09
  2205.44    0.2521E-05    0.2520E-05    0.8495E-09
  2207.76    0.2523E-05    0.2522E-05    0.8510E-09
  2210.09    0.2526E-05    0.2525E-05    0.8524E-09
  2212.41    0.2528E-05    0.2527E-05    0.8539E-09
  2214.74    0.2531E-05    0.2530E-05    0.8554E-09
  2217.06    0.2533E-05    0.2533E-05    0.8569E-09
  2219.39    0.2536E-05    0.2535E-05    0.8584E-09
  2221.71    0.2539E-05    0.2538E-05    0.8600E-09
  2224.04    0.2542E-05    0.2541E-05    0.8615E-09
  2226.36    0.2545E-05    0.2544E-05    0.8631E-09
  2228.69    0.2548E-05    0.2547E-05    0.8647E-09
  2231.01    0.2551E-05    0.2550E-05    0.8664E-09
  2233.34    0.2554E-05    0.2553E-05    0.8680E-09
  2235.66    0.2558E-05    0.2557E-05    0.8697E-09
  2237.99    0.2561E-05    0.2560E-05    0.8714E-09
  2240.31    0.2564E-05    0.2563E-05    0.8731E-09
  2242.64    0.2568E-05    0.2567E-05    0.8748E-09
  2244.96    0.2571E-05    0.2570E-05    0.8766E-09
  2247.29    0.2575E-05    0.2574E-05    0.8784E-09
  2249.61    0.2579E-05    0.2578E-05    0.8801E-09
  2251.93    0.2582E-05    0.2581E-05    0.8820E-09
  2254.26    0.2586E-05    0.2585E-05    0.8838E-09
  2256.58    0.2590E-05    0.2589E-05    0.8856E-09
  2258.91    0.2594E-05    0.2593E-05    0.8875E-09
  2261.23    0.2598E-05    0.2597E-05    0.8894E-09
  2263.56    0.2602E-05    0.2601E-05    0.8913E-09
  2265.88    0.2606E-05    0.2605E-05    0.8932E-09
  2268.21    0.2610E-05    0.2609E-05    0.8952E-09
  2270.53    0.2615E-05    0.2614E-05    0.8971E-09
  2272.86    0.2619E-05    0.2618E-05    0.8991E-09
  2275.18    0.2623E-05    0.2622E-05    0.9011E-09
  2277.51    0.2628E-05    0.2627E-05    0.9031E-09
  2279.83    0.2632E-05    0.2631E-05    0.9052E-09
  2282.16    0.2637E-05    0.2636E-05    0.9072E-09
  2284.48    0.2641E-05    0.2640E-05    0.9093E-09
  2286.81    0.2646E-05    0.2645E-05    0.9114E-09
  2289.13    0.2651E-05    0.2650E-05    0.9136E-09
  2291.46    0.2656E-05    0.2655E-05    0.9157E-09
  2293.78    0.2661E-05    0.2660E-05    0.9179E-09
  2296.10    0.2666E-05    0.2665E-05    0.9200E-09
  2298.43    0.2671E-05    0.2670E-05    0.9222E-09
  2300.75    0.2676E-05    0.2675E-05    0.9244E-09
  2303.08    0.2681E-05    0.2680E-05    0.9267E-09
  2305.40    0.2686E-05    0.2685E-05    0.9289E-09
  2307.73    0.2691E-05    0.2690E-05    0.9312E-09
  2310.05    0.2697E-05    0.2696E-05    0.9335E-09
  2312.38    0.2702E-05    0.2701E-05    0.9358E-09
  2314.70    0.2707E-05    0.2706E-05    0.9382E-09
  2317.03    0.2713E-05    0.2712E-05    0.9405E-09
  2319.35    0.2718E-05    0.2718E-05    0.9429E-09
  2321.68    0.2724E-05    0.2723E-05    0.9453E-09
  2324.00    0.2730E-05    0.2729E-05    0.9477E-09
  2326.33    0.2736E-05    0.2735E-05    0.9501E-09
  2328.65    0.2741E-05    0.2740E-05    0.9526E-09
  2330.98    0.2747E-05    0.2746E-05    0.9551E-09
  2333.30    0.2753E-05    0.2752E-05    0.9576E-09
  2335.63    0.2759E-05    0.2758E-05    0.9601E-09
  2337.95    0.2765E-05    0.2764E-05    0.9626E-09
  2340.28    0.2772E-05    0.2771E-05    0.9652E-09
  2342.60    0.2778E-05    0.2777E-05    0.9678E-09
  2344.92    0.2784E-05    0.2783E-05    0.9703E-09
  2347.25    0.2790E-05    0.2789E-05    0.9730E-09
  2349.57    0.2797E-05    0.2796E-05    0.9756E-09
  2351.90    0.2803E-05    0.2802E-05    0.9783E-09
  2354.22    0.2810E-05    0.2809E-05    0.9809E-09
  2356.55    0.2816E-05    0.2815E-05    0.9836E-09
  2358.87    0.2823E-05    0.2822E-05    0.9863E-09
  2361.20    0.2830E-05    0.2829E-05    0.9891E-09
  2363.52    0.2836E-05    0.2835E-05    0.9918E-09
  2365.85    0.2843E-05    0.2842E-05    0.9946E-09
  2368.17    0.2850E-05    0.2849E-05    0.9974E-09
  2370.50    0.2857E-05    0.2856E-05    0.1000E-08
  2372.82    0.2864E-05    0.2863E-05    0.1003E-08
  2375.15    0.2871E-05    0.2870E-05    0.1006E-08
  2377.47    0.2878E-05    0.2877E-05    0.1009E-08
  2379.80    0.2886E-05    0.2885E-05    0.1012E-08
