
 ------------------------------------------------------------
     resonance       Raman Scattering Plot
 ------------------------------------------------------------
 Excitation wavelength  514.50 nm
 Convolution lineshape is lorentzian  
 FWHM   20.00  1/cm
 ------------------------------------------------------------
 ------------------------------------------------------------
 # of frequencies :     3
 ------------------------------------------------------------
#  freq [ 1/cm]  S-tot [a.u.]S-real [a.u.]  S-imag [a.u.]
 ------------------------------------------------------------
   1  1591.57        7.9844        7.9838        0.0006
   2  3680.15       83.8935       83.8717        0.0218
   3  3783.77       40.8708       40.8610        0.0098
 ------------------------------------------------------------
  1533.88    0.2768E-03    0.2767E-03    0.2033E-07
  1536.19    0.2996E-03    0.2996E-03    0.2200E-07
  1538.51    0.3253E-03    0.3253E-03    0.2387E-07
  1540.82    0.3544E-03    0.3544E-03    0.2600E-07
  1543.14    0.3876E-03    0.3876E-03    0.2842E-07
  1545.45    0.4257E-03    0.4256E-03    0.3120E-07
  1547.77    0.4695E-03    0.4694E-03    0.3439E-07
  1550.08    0.5203E-03    0.5202E-03    0.3810E-07
  1552.40    0.5796E-03    0.5796E-03    0.4243E-07
  1554.71    0.6495E-03    0.6494E-03    0.4752E-07
  1557.02    0.7323E-03    0.7323E-03    0.5357E-07
  1559.34    0.8316E-03    0.8316E-03    0.6081E-07
  1561.65    0.9518E-03    0.9517E-03    0.6957E-07
  1563.97    0.1099E-02    0.1099E-02    0.8029E-07
  1566.28    0.1280E-02    0.1280E-02    0.9355E-07
  1568.60    0.1508E-02    0.1508E-02    0.1102E-06
  1570.91    0.1797E-02    0.1797E-02    0.1312E-06
  1573.23    0.2169E-02    0.2169E-02    0.1583E-06
  1575.54    0.2652E-02    0.2652E-02    0.1936E-06
  1577.86    0.3286E-02    0.3285E-02    0.2398E-06
  1580.17    0.4116E-02    0.4116E-02    0.3004E-06
  1582.48    0.5185E-02    0.5185E-02    0.3783E-06
  1584.80    0.6489E-02    0.6489E-02    0.4735E-06
  1587.11    0.7895E-02    0.7895E-02    0.5760E-06
  1589.43    0.9047E-02    0.9046E-02    0.6600E-06
  1591.74    0.9457E-02    0.9456E-02    0.6899E-06
  1594.06    0.8907E-02    0.8906E-02    0.6498E-06
  1596.37    0.7685E-02    0.7684E-02    0.5607E-06
  1598.69    0.6277E-02    0.6277E-02    0.4580E-06
  1601.00    0.5005E-02    0.5004E-02    0.3652E-06
  1603.32    0.3974E-02    0.3974E-02    0.2900E-06
  1605.63    0.3177E-02    0.3177E-02    0.2319E-06
  1607.94    0.2569E-02    0.2569E-02    0.1876E-06
  1610.26    0.2105E-02    0.2105E-02    0.1537E-06
  1612.57    0.1748E-02    0.1748E-02    0.1277E-06
  1614.89    0.1470E-02    0.1470E-02    0.1074E-06
  1617.20    0.1250E-02    0.1250E-02    0.9133E-07
  1619.52    0.1074E-02    0.1074E-02    0.7851E-07
  1621.83    0.9318E-03    0.9318E-03    0.6813E-07
  1624.15    0.8152E-03    0.8152E-03    0.5962E-07
  1626.46    0.7187E-03    0.7187E-03    0.5258E-07
  1628.78    0.6380E-03    0.6380E-03    0.4670E-07
  1631.09    0.5699E-03    0.5699E-03    0.4173E-07
  1633.40    0.5120E-03    0.5120E-03    0.3751E-07
  1635.72    0.4624E-03    0.4624E-03    0.3389E-07
  1638.03    0.4196E-03    0.4195E-03    0.3076E-07
  1640.35    0.3823E-03    0.3823E-03    0.2805E-07
  1642.66    0.3498E-03    0.3498E-03    0.2568E-07
  1644.98    0.3212E-03    0.3212E-03    0.2359E-07
  1647.29    0.2960E-03    0.2960E-03    0.2175E-07
  1649.61    0.2736E-03    0.2736E-03    0.2012E-07
  1651.92    0.2536E-03    0.2536E-03    0.1866E-07
  1654.23    0.2358E-03    0.2357E-03    0.1736E-07
  1656.55    0.2197E-03    0.2197E-03    0.1619E-07
  1658.86    0.2052E-03    0.2052E-03    0.1513E-07
  1661.18    0.1922E-03    0.1921E-03    0.1418E-07
  1663.49    0.1803E-03    0.1803E-03    0.1331E-07
  1665.81    0.1695E-03    0.1694E-03    0.1253E-07
  1668.12    0.1596E-03    0.1596E-03    0.1181E-07
  1670.44    0.1506E-03    0.1506E-03    0.1115E-07
  1672.75    0.1423E-03    0.1423E-03    0.1054E-07
  1675.07    0.1347E-03    0.1347E-03    0.9989E-08
  1677.38    0.1276E-03    0.1276E-03    0.9477E-08
  1679.69    0.1212E-03    0.1212E-03    0.9005E-08
  1682.01    0.1152E-03    0.1152E-03    0.8568E-08
  1684.32    0.1096E-03    0.1096E-03    0.8162E-08
  1686.64    0.1044E-03    0.1044E-03    0.7786E-08
  1688.95    0.9962E-04    0.9962E-04    0.7435E-08
  1691.27    0.9514E-04    0.9514E-04    0.7109E-08
  1693.58    0.9096E-04    0.9095E-04    0.6804E-08
  1695.90    0.8705E-04    0.8704E-04    0.6519E-08
  1698.21    0.8338E-04    0.8338E-04    0.6252E-08
  1700.53    0.7995E-04    0.7994E-04    0.6002E-08
  1702.84    0.7673E-04    0.7672E-04    0.5768E-08
  1705.15    0.7369E-04    0.7369E-04    0.5547E-08
  1707.47    0.7084E-04    0.7084E-04    0.5339E-08
  1709.78    0.6815E-04    0.6815E-04    0.5144E-08
  1712.10    0.6562E-04    0.6561E-04    0.4959E-08
  1714.41    0.6322E-04    0.6322E-04    0.4785E-08
  1716.73    0.6096E-04    0.6095E-04    0.4620E-08
  1719.04    0.5881E-04    0.5881E-04    0.4464E-08
  1721.36    0.5678E-04    0.5678E-04    0.4316E-08
  1723.67    0.5486E-04    0.5485E-04    0.4176E-08
  1725.98    0.5303E-04    0.5303E-04    0.4043E-08
  1728.30    0.5129E-04    0.5129E-04    0.3917E-08
  1730.61    0.4964E-04    0.4964E-04    0.3797E-08
  1732.93    0.4807E-04    0.4807E-04    0.3683E-08
  1735.24    0.4658E-04    0.4657E-04    0.3574E-08
  1737.56    0.4515E-04    0.4515E-04    0.3471E-08
  1739.87    0.4379E-04    0.4379E-04    0.3372E-08
  1742.19    0.4249E-04    0.4249E-04    0.3278E-08
  1744.50    0.4126E-04    0.4125E-04    0.3188E-08
  1746.82    0.4007E-04    0.4007E-04    0.3102E-08
  1749.13    0.3894E-04    0.3893E-04    0.3020E-08
  1751.44    0.3785E-04    0.3785E-04    0.2941E-08
  1753.76    0.3682E-04    0.3681E-04    0.2866E-08
  1756.07    0.3582E-04    0.3582E-04    0.2793E-08
  1758.39    0.3487E-04    0.3486E-04    0.2724E-08
  1760.70    0.3395E-04    0.3395E-04    0.2658E-08
  1763.02    0.3307E-04    0.3307E-04    0.2594E-08
  1765.33    0.3223E-04    0.3223E-04    0.2533E-08
  1767.65    0.3142E-04    0.3142E-04    0.2475E-08
  1769.96    0.3064E-04    0.3064E-04    0.2418E-08
  1772.28    0.2989E-04    0.2989E-04    0.2364E-08
  1774.59    0.2917E-04    0.2917E-04    0.2312E-08
  1776.90    0.2848E-04    0.2847E-04    0.2262E-08
  1779.22    0.2781E-04    0.2781E-04    0.2213E-08
  1781.53    0.2716E-04    0.2716E-04    0.2167E-08
  1783.85    0.2654E-04    0.2654E-04    0.2122E-08
  1786.16    0.2594E-04    0.2594E-04    0.2079E-08
  1788.48    0.2536E-04    0.2536E-04    0.2037E-08
  1790.79    0.2481E-04    0.2480E-04    0.1997E-08
  1793.11    0.2427E-04    0.2427E-04    0.1958E-08
  1795.42    0.2375E-04    0.2374E-04    0.1920E-08
  1797.73    0.2324E-04    0.2324E-04    0.1884E-08
  1800.05    0.2276E-04    0.2275E-04    0.1849E-08
  1802.36    0.2229E-04    0.2228E-04    0.1815E-08
  1804.68    0.2183E-04    0.2183E-04    0.1782E-08
  1806.99    0.2139E-04    0.2139E-04    0.1751E-08
  1809.31    0.2096E-04    0.2096E-04    0.1720E-08
  1811.62    0.2055E-04    0.2055E-04    0.1690E-08
  1813.94    0.2015E-04    0.2015E-04    0.1662E-08
  1816.25    0.1976E-04    0.1976E-04    0.1634E-08
  1818.57    0.1939E-04    0.1938E-04    0.1607E-08
  1820.88    0.1902E-04    0.1902E-04    0.1581E-08
  1823.19    0.1867E-04    0.1867E-04    0.1555E-08
  1825.51    0.1832E-04    0.1832E-04    0.1531E-08
  1827.82    0.1799E-04    0.1799E-04    0.1507E-08
  1830.14    0.1767E-04    0.1767E-04    0.1484E-08
  1832.45    0.1735E-04    0.1735E-04    0.1461E-08
  1834.77    0.1705E-04    0.1705E-04    0.1440E-08
  1837.08    0.1675E-04    0.1675E-04    0.1419E-08
  1839.40    0.1646E-04    0.1646E-04    0.1398E-08
  1841.71    0.1618E-04    0.1618E-04    0.1378E-08
  1844.03    0.1591E-04    0.1591E-04    0.1359E-08
  1846.34    0.1565E-04    0.1565E-04    0.1340E-08
  1848.65    0.1539E-04    0.1539E-04    0.1322E-08
  1850.97    0.1514E-04    0.1514E-04    0.1304E-08
  1853.28    0.1489E-04    0.1489E-04    0.1287E-08
  1855.60    0.1466E-04    0.1466E-04    0.1270E-08
  1857.91    0.1443E-04    0.1442E-04    0.1253E-08
  1860.23    0.1420E-04    0.1420E-04    0.1237E-08
  1862.54    0.1398E-04    0.1398E-04    0.1222E-08
  1864.86    0.1377E-04    0.1377E-04    0.1207E-08
  1867.17    0.1356E-04    0.1356E-04    0.1192E-08
  1869.49    0.1336E-04    0.1335E-04    0.1178E-08
  1871.80    0.1316E-04    0.1316E-04    0.1164E-08
  1874.11    0.1296E-04    0.1296E-04    0.1150E-08
  1876.43    0.1278E-04    0.1277E-04    0.1137E-08
  1878.74    0.1259E-04    0.1259E-04    0.1124E-08
  1881.06    0.1241E-04    0.1241E-04    0.1112E-08
  1883.37    0.1224E-04    0.1224E-04    0.1099E-08
  1885.69    0.1207E-04    0.1207E-04    0.1087E-08
  1888.00    0.1190E-04    0.1190E-04    0.1076E-08
  1890.32    0.1174E-04    0.1174E-04    0.1064E-08
  1892.63    0.1158E-04    0.1158E-04    0.1053E-08
  1894.94    0.1142E-04    0.1142E-04    0.1043E-08
  1897.26    0.1127E-04    0.1127E-04    0.1032E-08
  1899.57    0.1112E-04    0.1112E-04    0.1022E-08
  1901.89    0.1098E-04    0.1098E-04    0.1012E-08
  1904.20    0.1084E-04    0.1084E-04    0.1002E-08
  1906.52    0.1070E-04    0.1070E-04    0.9924E-09
  1908.83    0.1056E-04    0.1056E-04    0.9831E-09
  1911.15    0.1043E-04    0.1043E-04    0.9740E-09
  1913.46    0.1030E-04    0.1030E-04    0.9651E-09
  1915.78    0.1017E-04    0.1017E-04    0.9564E-09
  1918.09    0.1005E-04    0.1005E-04    0.9479E-09
  1920.40    0.9929E-05    0.9928E-05    0.9396E-09
  1922.72    0.9811E-05    0.9810E-05    0.9316E-09
  1925.03    0.9695E-05    0.9694E-05    0.9237E-09
  1927.35    0.9581E-05    0.9580E-05    0.9159E-09
  1929.66    0.9470E-05    0.9469E-05    0.9084E-09
  1931.98    0.9361E-05    0.9360E-05    0.9010E-09
  1934.29    0.9255E-05    0.9254E-05    0.8938E-09
  1936.61    0.9150E-05    0.9150E-05    0.8868E-09
  1938.92    0.9048E-05    0.9047E-05    0.8799E-09
  1941.24    0.8948E-05    0.8947E-05    0.8732E-09
  1943.55    0.8850E-05    0.8849E-05    0.8666E-09
  1945.86    0.8754E-05    0.8753E-05    0.8602E-09
  1948.18    0.8660E-05    0.8659E-05    0.8539E-09
  1950.49    0.8568E-05    0.8567E-05    0.8478E-09
  1952.81    0.8477E-05    0.8477E-05    0.8418E-09
  1955.12    0.8389E-05    0.8388E-05    0.8359E-09
  1957.44    0.8302E-05    0.8301E-05    0.8302E-09
  1959.75    0.8217E-05    0.8216E-05    0.8245E-09
  1962.07    0.8133E-05    0.8132E-05    0.8190E-09
  1964.38    0.8051E-05    0.8051E-05    0.8137E-09
  1966.69    0.7971E-05    0.7970E-05    0.8084E-09
  1969.01    0.7892E-05    0.7892E-05    0.8033E-09
  1971.32    0.7815E-05    0.7814E-05    0.7983E-09
  1973.64    0.7739E-05    0.7739E-05    0.7933E-09
  1975.95    0.7665E-05    0.7664E-05    0.7885E-09
  1978.27    0.7592E-05    0.7591E-05    0.7838E-09
  1980.58    0.7521E-05    0.7520E-05    0.7792E-09
  1982.90    0.7451E-05    0.7450E-05    0.7747E-09
  1985.21    0.7382E-05    0.7381E-05    0.7703E-09
  1987.53    0.7314E-05    0.7313E-05    0.7660E-09
  1989.84    0.7248E-05    0.7247E-05    0.7618E-09
  1992.15    0.7183E-05    0.7182E-05    0.7577E-09
  1994.47    0.7119E-05    0.7118E-05    0.7537E-09
  1996.78    0.7056E-05    0.7055E-05    0.7497E-09
  1999.10    0.6994E-05    0.6993E-05    0.7459E-09
  2001.41    0.6934E-05    0.6933E-05    0.7421E-09
  2003.73    0.6874E-05    0.6873E-05    0.7384E-09
  2006.04    0.6816E-05    0.6815E-05    0.7348E-09
  2008.36    0.6758E-05    0.6758E-05    0.7312E-09
  2010.67    0.6702E-05    0.6701E-05    0.7278E-09
  2012.99    0.6647E-05    0.6646E-05    0.7244E-09
  2015.30    0.6592E-05    0.6592E-05    0.7211E-09
  2017.61    0.6539E-05    0.6538E-05    0.7179E-09
  2019.93    0.6487E-05    0.6486E-05    0.7147E-09
  2022.24    0.6435E-05    0.6434E-05    0.7116E-09
  2024.56    0.6384E-05    0.6384E-05    0.7086E-09
  2026.87    0.6335E-05    0.6334E-05    0.7056E-09
  2029.19    0.6286E-05    0.6285E-05    0.7027E-09
  2031.50    0.6238E-05    0.6237E-05    0.6999E-09
  2033.82    0.6191E-05    0.6190E-05    0.6971E-09
  2036.13    0.6144E-05    0.6143E-05    0.6944E-09
  2038.44    0.6098E-05    0.6098E-05    0.6918E-09
  2040.76    0.6054E-05    0.6053E-05    0.6892E-09
  2043.07    0.6010E-05    0.6009E-05    0.6867E-09
  2045.39    0.5966E-05    0.5966E-05    0.6842E-09
  2047.70    0.5924E-05    0.5923E-05    0.6818E-09
  2050.02    0.5882E-05    0.5881E-05    0.6794E-09
  2052.33    0.5841E-05    0.5840E-05    0.6771E-09
  2054.65    0.5800E-05    0.5799E-05    0.6749E-09
  2056.96    0.5760E-05    0.5760E-05    0.6727E-09
  2059.28    0.5721E-05    0.5720E-05    0.6705E-09
  2061.59    0.5683E-05    0.5682E-05    0.6684E-09
  2063.90    0.5645E-05    0.5644E-05    0.6664E-09
  2066.22    0.5607E-05    0.5607E-05    0.6644E-09
  2068.53    0.5571E-05    0.5570E-05    0.6624E-09
  2070.85    0.5535E-05    0.5534E-05    0.6605E-09
  2073.16    0.5499E-05    0.5499E-05    0.6587E-09
  2075.48    0.5465E-05    0.5464E-05    0.6569E-09
  2077.79    0.5430E-05    0.5430E-05    0.6551E-09
  2080.11    0.5397E-05    0.5396E-05    0.6534E-09
  2082.42    0.5363E-05    0.5363E-05    0.6517E-09
  2084.74    0.5331E-05    0.5330E-05    0.6501E-09
  2087.05    0.5299E-05    0.5298E-05    0.6485E-09
  2089.36    0.5267E-05    0.5266E-05    0.6469E-09
  2091.68    0.5236E-05    0.5235E-05    0.6454E-09
  2093.99    0.5205E-05    0.5205E-05    0.6439E-09
  2096.31    0.5175E-05    0.5175E-05    0.6425E-09
  2098.62    0.5146E-05    0.5145E-05    0.6411E-09
  2100.94    0.5117E-05    0.5116E-05    0.6398E-09
  2103.25    0.5088E-05    0.5087E-05    0.6384E-09
  2105.57    0.5060E-05    0.5059E-05    0.6372E-09
  2107.88    0.5032E-05    0.5032E-05    0.6359E-09
  2110.20    0.5005E-05    0.5004E-05    0.6347E-09
  2112.51    0.4978E-05    0.4977E-05    0.6335E-09
  2114.82    0.4952E-05    0.4951E-05    0.6324E-09
  2117.14    0.4926E-05    0.4925E-05    0.6313E-09
  2119.45    0.4900E-05    0.4899E-05    0.6302E-09
  2121.77    0.4875E-05    0.4874E-05    0.6292E-09
  2124.08    0.4850E-05    0.4850E-05    0.6282E-09
  2126.40    0.4826E-05    0.4825E-05    0.6272E-09
  2128.71    0.4802E-05    0.4801E-05    0.6263E-09
  2131.03    0.4778E-05    0.4778E-05    0.6254E-09
  2133.34    0.4755E-05    0.4755E-05    0.6245E-09
  2135.65    0.4732E-05    0.4732E-05    0.6236E-09
  2137.97    0.4710E-05    0.4709E-05    0.6228E-09
  2140.28    0.4688E-05    0.4687E-05    0.6220E-09
  2142.60    0.4666E-05    0.4665E-05    0.6213E-09
  2144.91    0.4645E-05    0.4644E-05    0.6206E-09
  2147.23    0.4624E-05    0.4623E-05    0.6199E-09
  2149.54    0.4603E-05    0.4602E-05    0.6192E-09
  2151.86    0.4582E-05    0.4582E-05    0.6185E-09
  2154.17    0.4562E-05    0.4562E-05    0.6179E-09
  2156.49    0.4543E-05    0.4542E-05    0.6173E-09
  2158.80    0.4523E-05    0.4523E-05    0.6168E-09
  2161.11    0.4504E-05    0.4504E-05    0.6163E-09
  2163.43    0.4485E-05    0.4485E-05    0.6158E-09
  2165.74    0.4467E-05    0.4466E-05    0.6153E-09
  2168.06    0.4449E-05    0.4448E-05    0.6148E-09
  2170.37    0.4431E-05    0.4430E-05    0.6144E-09
  2172.69    0.4413E-05    0.4413E-05    0.6140E-09
  2175.00    0.4396E-05    0.4395E-05    0.6136E-09
  2177.32    0.4379E-05    0.4378E-05    0.6133E-09
  2179.63    0.4362E-05    0.4362E-05    0.6129E-09
  2181.95    0.4346E-05    0.4345E-05    0.6126E-09
  2184.26    0.4330E-05    0.4329E-05    0.6123E-09
  2186.57    0.4314E-05    0.4313E-05    0.6121E-09
  2188.89    0.4298E-05    0.4298E-05    0.6119E-09
  2191.20    0.4283E-05    0.4282E-05    0.6116E-09
  2193.52    0.4268E-05    0.4267E-05    0.6115E-09
  2195.83    0.4253E-05    0.4252E-05    0.6113E-09
  2198.15    0.4238E-05    0.4238E-05    0.6112E-09
  2200.46    0.4224E-05    0.4223E-05    0.6110E-09
  2202.78    0.4210E-05    0.4209E-05    0.6109E-09
  2205.09    0.4196E-05    0.4195E-05    0.6109E-09
  2207.40    0.4182E-05    0.4182E-05    0.6108E-09
  2209.72    0.4169E-05    0.4168E-05    0.6108E-09
  2212.03    0.4156E-05    0.4155E-05    0.6108E-09
  2214.35    0.4143E-05    0.4142E-05    0.6108E-09
  2216.66    0.4130E-05    0.4129E-05    0.6108E-09
  2218.98    0.4117E-05    0.4117E-05    0.6109E-09
  2221.29    0.4105E-05    0.4104E-05    0.6109E-09
  2223.61    0.4093E-05    0.4092E-05    0.6110E-09
  2225.92    0.4081E-05    0.4081E-05    0.6111E-09
  2228.24    0.4070E-05    0.4069E-05    0.6113E-09
  2230.55    0.4058E-05    0.4057E-05    0.6114E-09
  2232.86    0.4047E-05    0.4046E-05    0.6116E-09
  2235.18    0.4036E-05    0.4035E-05    0.6118E-09
  2237.49    0.4025E-05    0.4024E-05    0.6120E-09
  2239.81    0.4014E-05    0.4014E-05    0.6122E-09
  2242.12    0.4004E-05    0.4003E-05    0.6125E-09
  2244.44    0.3994E-05    0.3993E-05    0.6128E-09
  2246.75    0.3984E-05    0.3983E-05    0.6131E-09
  2249.07    0.3974E-05    0.3973E-05    0.6134E-09
  2251.38    0.3964E-05    0.3964E-05    0.6137E-09
  2253.70    0.3955E-05    0.3954E-05    0.6140E-09
  2256.01    0.3946E-05    0.3945E-05    0.6144E-09
  2258.32    0.3937E-05    0.3936E-05    0.6148E-09
  2260.64    0.3928E-05    0.3927E-05    0.6152E-09
  2262.95    0.3919E-05    0.3918E-05    0.6156E-09
  2265.27    0.3910E-05    0.3910E-05    0.6160E-09
  2267.58    0.3902E-05    0.3901E-05    0.6165E-09
  2269.90    0.3894E-05    0.3893E-05    0.6170E-09
  2272.21    0.3886E-05    0.3885E-05    0.6175E-09
  2274.53    0.3878E-05    0.3877E-05    0.6180E-09
  2276.84    0.3870E-05    0.3870E-05    0.6185E-09
  2279.15    0.3863E-05    0.3862E-05    0.6190E-09
  2281.47    0.3855E-05    0.3855E-05    0.6196E-09
  2283.78    0.3848E-05    0.3848E-05    0.6202E-09
  2286.10    0.3841E-05    0.3841E-05    0.6208E-09
  2288.41    0.3834E-05    0.3834E-05    0.6214E-09
  2290.73    0.3828E-05    0.3827E-05    0.6220E-09
  2293.04    0.3821E-05    0.3821E-05    0.6227E-09
  2295.36    0.3815E-05    0.3814E-05    0.6233E-09
  2297.67    0.3809E-05    0.3808E-05    0.6240E-09
  2299.99    0.3802E-05    0.3802E-05    0.6247E-09
  2302.30    0.3797E-05    0.3796E-05    0.6254E-09
  2304.61    0.3791E-05    0.3790E-05    0.6262E-09
  2306.93    0.3785E-05    0.3784E-05    0.6269E-09
  2309.24    0.3780E-05    0.3779E-05    0.6277E-09
  2311.56    0.3774E-05    0.3774E-05    0.6284E-09
  2313.87    0.3769E-05    0.3768E-05    0.6292E-09
  2316.19    0.3764E-05    0.3763E-05    0.6301E-09
  2318.50    0.3759E-05    0.3758E-05    0.6309E-09
  2320.82    0.3754E-05    0.3754E-05    0.6317E-09
  2323.13    0.3750E-05    0.3749E-05    0.6326E-09
  2325.45    0.3745E-05    0.3745E-05    0.6335E-09
  2327.76    0.3741E-05    0.3740E-05    0.6344E-09
  2330.07    0.3737E-05    0.3736E-05    0.6353E-09
  2332.39    0.3733E-05    0.3732E-05    0.6362E-09
  2334.70    0.3729E-05    0.3728E-05    0.6371E-09
  2337.02    0.3725E-05    0.3724E-05    0.6381E-09
  2339.33    0.3721E-05    0.3721E-05    0.6391E-09
  2341.65    0.3718E-05    0.3717E-05    0.6401E-09
  2343.96    0.3714E-05    0.3714E-05    0.6411E-09
  2346.28    0.3711E-05    0.3710E-05    0.6421E-09
  2348.59    0.3708E-05    0.3707E-05    0.6431E-09
  2350.91    0.3705E-05    0.3704E-05    0.6442E-09
  2353.22    0.3702E-05    0.3701E-05    0.6453E-09
  2355.53    0.3699E-05    0.3699E-05    0.6463E-09
  2357.85    0.3697E-05    0.3696E-05    0.6474E-09
  2360.16    0.3694E-05    0.3693E-05    0.6486E-09
  2362.48    0.3692E-05    0.3691E-05    0.6497E-09
  2364.79    0.3689E-05    0.3689E-05    0.6508E-09
  2367.11    0.3687E-05    0.3687E-05    0.6520E-09
  2369.42    0.3685E-05    0.3685E-05    0.6532E-09
  2371.74    0.3683E-05    0.3683E-05    0.6544E-09
  2374.05    0.3682E-05    0.3681E-05    0.6556E-09
  2376.36    0.3680E-05    0.3679E-05    0.6568E-09
  2378.68    0.3678E-05    0.3678E-05    0.6581E-09
  2380.99    0.3677E-05    0.3676E-05    0.6593E-09
  2383.31    0.3676E-05    0.3675E-05    0.6606E-09
